#K-Path(1/A) Energy-Level(eV)
# NKPTS & NBANDS:  60 120
# Band-Index    1
   0.00000    -17.790053
   0.01519    -17.789563
   0.03038    -17.788092
   0.04557    -17.785648
   0.06076    -17.782230
   0.07595    -17.777838
   0.09114    -17.772485
   0.10633    -17.766182
   0.12152    -17.758942
   0.13671    -17.750787
   0.15190    -17.741742
   0.16709    -17.731846
   0.18228    -17.721148
   0.19747    -17.709745
   0.21266    -17.697776
   0.22785    -17.685490
   0.24305    -17.673337
   0.25824    -17.662214
   0.27343    -17.653778
   0.28862    -17.650491
   0.28862    -17.650491
   0.29739    -17.650318
   0.30616    -17.649801
   0.31493    -17.648938
   0.32370    -17.647730
   0.33247    -17.646179
   0.34124    -17.644288
   0.35001    -17.642053
   0.35878    -17.639476
   0.36755    -17.636562
   0.37632    -17.633310
   0.38509    -17.629722
   0.39386    -17.625815
   0.40263    -17.621590
   0.41140    -17.617070
   0.42017    -17.612288
   0.42894    -17.607317
   0.43771    -17.602340
   0.44648    -17.597909
   0.45525    -17.595770
   0.45525    -17.595770
   0.47279    -17.603855
   0.49033    -17.618562
   0.50787    -17.634821
   0.52541    -17.651439
   0.54295    -17.667833
   0.56049    -17.683665
   0.57803    -17.698709
   0.59557    -17.712816
   0.61311    -17.725901
   0.63065    -17.737872
   0.64819    -17.748682
   0.66573    -17.758286
   0.68327    -17.766659
   0.70081    -17.773780
   0.71835    -17.779627
   0.73589    -17.784181
   0.75343    -17.787440
   0.77097    -17.789399
   0.78851    -17.790053
 
# Band-Index    2
   0.78851    -17.103613
   0.77097    -17.134149
   0.75343    -17.169808
   0.73589    -17.204539
   0.71835    -17.238114
   0.70081    -17.270464
   0.68327    -17.301569
   0.66573    -17.331408
   0.64819    -17.359965
   0.63065    -17.387228
   0.61311    -17.413175
   0.59557    -17.437804
   0.57803    -17.461099
   0.56049    -17.483044
   0.54295    -17.503621
   0.52541    -17.522801
   0.50787    -17.540534
   0.49033    -17.556684
   0.47279    -17.570678
   0.45525    -17.578310
   0.45525    -17.578310
   0.44648    -17.576348
   0.43771    -17.572509
   0.42894    -17.568618
   0.42017    -17.565254
   0.41140    -17.562578
   0.40263    -17.560598
   0.39386    -17.559248
   0.38509    -17.558422
   0.37632    -17.558018
   0.36755    -17.557925
   0.35878    -17.558052
   0.35001    -17.558322
   0.34124    -17.558666
   0.33247    -17.559034
   0.32370    -17.559386
   0.31493    -17.559692
   0.30616    -17.559925
   0.29739    -17.560071
   0.28862    -17.560121
   0.28862    -17.560121
   0.27343    -17.555901
   0.25824    -17.544676
   0.24305    -17.528896
   0.22785    -17.510245
   0.21266    -17.489605
   0.19747    -17.467444
   0.18228    -17.444032
   0.16709    -17.419500
   0.15190    -17.393966
   0.13671    -17.367507
   0.12152    -17.340185
   0.10633    -17.312046
   0.09114    -17.283147
   0.07595    -17.253534
   0.06076    -17.223264
   0.04557    -17.192398
   0.03038    -17.161053
   0.01519    -17.129517
   0.00000    -17.103613
 
# Band-Index    3
   0.00000    -17.103549
   0.01519    -17.114260
   0.03038    -17.130452
   0.04557    -17.146488
   0.06076    -17.161772
   0.07595    -17.176162
   0.09114    -17.189616
   0.10633    -17.202109
   0.12152    -17.213626
   0.13671    -17.224162
   0.15190    -17.233703
   0.16709    -17.242253
   0.18228    -17.249804
   0.19747    -17.256352
   0.21266    -17.261894
   0.22785    -17.266433
   0.24305    -17.269963
   0.25824    -17.272484
   0.27343    -17.273999
   0.28862    -17.274505
   0.28862    -17.274505
   0.29739    -17.276657
   0.30616    -17.282657
   0.31493    -17.291483
   0.32370    -17.302102
   0.33247    -17.313738
   0.34124    -17.325850
   0.35001    -17.338076
   0.35878    -17.350141
   0.36755    -17.361849
   0.37632    -17.373014
   0.38509    -17.383472
   0.39386    -17.393061
   0.40263    -17.401622
   0.41140    -17.409022
   0.42017    -17.415136
   0.42894    -17.419874
   0.43771    -17.423203
   0.44648    -17.425146
   0.45525    -17.425770
   0.45525    -17.425770
   0.47279    -17.423504
   0.49033    -17.417327
   0.50787    -17.408085
   0.52541    -17.396416
   0.54295    -17.382768
   0.56049    -17.367452
   0.57803    -17.350700
   0.59557    -17.332691
   0.61311    -17.313578
   0.63065    -17.293499
   0.64819    -17.272578
   0.66573    -17.250962
   0.68327    -17.228797
   0.70081    -17.206251
   0.71835    -17.183519
   0.73589    -17.160826
   0.75343    -17.138505
   0.77097    -17.117317
   0.78851    -17.103549
 
# Band-Index    4
   0.78851    -17.091958
   0.77097    -17.086183
   0.75343    -17.084011
   0.73589    -17.080663
   0.71835    -17.076014
   0.70081    -17.070050
   0.68327    -17.062767
   0.66573    -17.054176
   0.64819    -17.044269
   0.63065    -17.033055
   0.61311    -17.020539
   0.59557    -17.006732
   0.57803    -16.991642
   0.56049    -16.975268
   0.54295    -16.957629
   0.52541    -16.938729
   0.50787    -16.918577
   0.49033    -16.897187
   0.47279    -16.874582
   0.45525    -16.850766
   0.45525    -16.850766
   0.44648    -16.864244
   0.43771    -16.879837
   0.42894    -16.896888
   0.42017    -16.914908
   0.41140    -16.933525
   0.40263    -16.952469
   0.39386    -16.971549
   0.38509    -16.990610
   0.37632    -17.009527
   0.36755    -17.028189
   0.35878    -17.046471
   0.35001    -17.064250
   0.34124    -17.081351
   0.33247    -17.097541
   0.32370    -17.112479
   0.31493    -17.125644
   0.30616    -17.136275
   0.29739    -17.143359
   0.28862    -17.145871
   0.28862    -17.145871
   0.27343    -17.145553
   0.25824    -17.144603
   0.24305    -17.143036
   0.22785    -17.140868
   0.21266    -17.138127
   0.19747    -17.134855
   0.18228    -17.131098
   0.16709    -17.126919
   0.15190    -17.122394
   0.13671    -17.117619
   0.12152    -17.112702
   0.10633    -17.107774
   0.09114    -17.102984
   0.07595    -17.098495
   0.06076    -17.094488
   0.04557    -17.091142
   0.03038    -17.088644
   0.01519    -17.087303
   0.00000    -17.091958
 
# Band-Index    5
   0.00000    -17.082834
   0.01519    -17.071109
   0.03038    -17.052028
   0.04557    -17.031192
   0.06076    -17.009185
   0.07595    -16.986161
   0.09114    -16.962164
   0.10633    -16.937217
   0.12152    -16.911347
   0.13671    -16.884571
   0.15190    -16.856910
   0.16709    -16.828374
   0.18228    -16.798992
   0.19747    -16.768785
   0.21266    -16.737790
   0.22785    -16.706081
   0.24305    -16.673799
   0.25824    -16.641295
   0.27343    -16.610095
   0.28862    -16.591362
   0.28862    -16.591362
   0.29739    -16.596507
   0.30616    -16.608308
   0.31493    -16.622626
   0.32370    -16.637827
   0.33247    -16.653303
   0.34124    -16.668810
   0.35001    -16.684210
   0.35878    -16.699455
   0.36755    -16.714500
   0.37632    -16.729313
   0.38509    -16.743889
   0.39386    -16.758200
   0.40263    -16.772256
   0.41140    -16.786038
   0.42017    -16.799543
   0.42894    -16.812768
   0.43771    -16.825705
   0.44648    -16.838352
   0.45525    -16.850689
   0.45525    -16.850689
   0.47279    -16.832654
   0.49033    -16.828115
   0.50787    -16.833707
   0.52541    -16.844720
   0.54295    -16.858269
   0.56049    -16.872944
   0.57803    -16.888069
   0.59557    -16.903325
   0.61311    -16.918597
   0.63065    -16.933876
   0.64819    -16.949226
   0.66573    -16.964775
   0.68327    -16.980676
   0.70081    -16.997117
   0.71835    -17.014244
   0.73589    -17.032165
   0.75343    -17.050853
   0.77097    -17.069776
   0.78851    -17.082834
 
# Band-Index    6
   0.78851    -17.082754
   0.77097    -17.056211
   0.75343    -17.017166
   0.73589    -16.976534
   0.71835    -16.934683
   0.70081    -16.891689
   0.68327    -16.847581
   0.66573    -16.802418
   0.64819    -16.756213
   0.63065    -16.709016
   0.61311    -16.660836
   0.59557    -16.611721
   0.57803    -16.561709
   0.56049    -16.510852
   0.54295    -16.539690
   0.52541    -16.581283
   0.50787    -16.620649
   0.49033    -16.653916
   0.47279    -16.675918
   0.45525    -16.683026
   0.45525    -16.683026
   0.44648    -16.681551
   0.43771    -16.677585
   0.42894    -16.671760
   0.42017    -16.664571
   0.41140    -16.656388
   0.40263    -16.647476
   0.39386    -16.638035
   0.38509    -16.628233
   0.37632    -16.618186
   0.36755    -16.608036
   0.35878    -16.597903
   0.35001    -16.587936
   0.34124    -16.578315
   0.33247    -16.569246
   0.32370    -16.561012
   0.31493    -16.553950
   0.30616    -16.548465
   0.29739    -16.544947
   0.28862    -16.543710
   0.28862    -16.543710
   0.27343    -16.544139
   0.25824    -16.560237
   0.24305    -16.582861
   0.22785    -16.609289
   0.21266    -16.637971
   0.19747    -16.668067
   0.18228    -16.699104
   0.16709    -16.730821
   0.15190    -16.763076
   0.13671    -16.795745
   0.12152    -16.828758
   0.10633    -16.862031
   0.09114    -16.895493
   0.07595    -16.929052
   0.06076    -16.962610
   0.04557    -16.996070
   0.03038    -17.029267
   0.01519    -17.061715
   0.00000    -17.082754
 
# Band-Index    7
   0.00000    -16.671050
   0.01519    -16.669321
   0.03038    -16.664162
   0.04557    -16.655669
   0.06076    -16.643980
   0.07595    -16.629278
   0.09114    -16.611761
   0.10633    -16.591658
   0.12152    -16.569230
   0.13671    -16.544767
   0.15190    -16.518632
   0.16709    -16.491287
   0.18228    -16.463436
   0.19747    -16.436119
   0.21266    -16.411113
   0.22785    -16.416690
   0.24305    -16.454355
   0.25824    -16.490692
   0.27343    -16.524206
   0.28862    -16.538129
   0.28862    -16.538129
   0.29739    -16.532712
   0.30616    -16.520153
   0.31493    -16.504584
   0.32370    -16.487661
   0.33247    -16.469964
   0.34124    -16.451751
   0.35001    -16.433162
   0.35878    -16.414255
   0.36755    -16.395082
   0.37632    -16.375693
   0.38509    -16.356107
   0.39386    -16.336357
   0.40263    -16.316492
   0.41140    -16.296556
   0.42017    -16.276638
   0.42894    -16.256849
   0.43771    -16.237408
   0.44648    -16.218893
   0.45525    -16.206192
   0.45525    -16.206192
   0.47279    -16.247888
   0.49033    -16.300662
   0.50787    -16.353919
   0.52541    -16.406854
   0.54295    -16.459209
   0.56049    -16.500103
   0.57803    -16.471663
   0.59557    -16.469125
   0.61311    -16.488046
   0.63065    -16.514371
   0.64819    -16.542087
   0.66573    -16.568991
   0.68327    -16.593957
   0.70081    -16.616261
   0.71835    -16.635315
   0.73589    -16.650648
   0.75343    -16.661887
   0.77097    -16.668746
   0.78851    -16.671050
 
# Band-Index    8
   0.78851    -15.810192
   0.77097    -15.838225
   0.75343    -15.886023
   0.73589    -15.937612
   0.71835    -15.990575
   0.70081    -16.044047
   0.68327    -16.097571
   0.66573    -16.150681
   0.64819    -16.202850
   0.63065    -16.253227
   0.61311    -16.299807
   0.59557    -16.336798
   0.57803    -16.350347
   0.56049    -16.336132
   0.54295    -16.308941
   0.52541    -16.277730
   0.50787    -16.246038
   0.49033    -16.216343
   0.47279    -16.193312
   0.45525    -16.191173
   0.45525    -16.191173
   0.44648    -16.196975
   0.43771    -16.207350
   0.42894    -16.219287
   0.42017    -16.231986
   0.41140    -16.245075
   0.40263    -16.258356
   0.39386    -16.271681
   0.38509    -16.284960
   0.37632    -16.298093
   0.36755    -16.310985
   0.35878    -16.323540
   0.35001    -16.335618
   0.34124    -16.347056
   0.33247    -16.357650
   0.32370    -16.367125
   0.31493    -16.375142
   0.30616    -16.381317
   0.29739    -16.385236
   0.28862    -16.386582
   0.28862    -16.386582
   0.27343    -16.384024
   0.25824    -16.379670
   0.24305    -16.380540
   0.22785    -16.391371
   0.21266    -16.378076
   0.19747    -16.338679
   0.18228    -16.298556
   0.16709    -16.257774
   0.15190    -16.216386
   0.13671    -16.174418
   0.12152    -16.131935
   0.10633    -16.089002
   0.09114    -16.045683
   0.07595    -16.002072
   0.06076    -15.958325
   0.04557    -15.914745
   0.03038    -15.871982
   0.01519    -15.832431
   0.00000    -15.810192
 
# Band-Index    9
   0.00000    -15.810127
   0.01519    -15.815136
   0.03038    -15.829215
   0.04557    -15.850580
   0.06076    -15.877139
   0.07595    -15.907157
   0.09114    -15.939354
   0.10633    -15.972835
   0.12152    -16.006954
   0.13671    -16.041204
   0.15190    -16.075122
   0.16709    -16.108204
   0.18228    -16.139822
   0.19747    -16.168985
   0.21266    -16.194017
   0.22785    -16.212150
   0.24305    -16.219908
   0.25824    -16.216701
   0.27343    -16.208317
   0.28862    -16.203917
   0.28862    -16.203917
   0.29739    -16.203766
   0.30616    -16.203310
   0.31493    -16.202550
   0.32370    -16.201482
   0.33247    -16.200113
   0.34124    -16.198440
   0.35001    -16.196460
   0.35878    -16.194178
   0.36755    -16.191593
   0.37632    -16.188716
   0.38509    -16.185551
   0.39386    -16.182119
   0.40263    -16.178463
   0.41140    -16.174657
   0.42017    -16.170936
   0.42894    -16.167945
   0.43771    -16.167823
   0.44648    -16.175845
   0.45525    -16.188055
   0.45525    -16.188055
   0.47279    -16.165839
   0.49033    -16.142072
   0.50787    -16.123061
   0.52541    -16.105564
   0.54295    -16.088121
   0.56049    -16.070166
   0.57803    -16.051495
   0.59557    -16.032015
   0.61311    -16.011707
   0.63065    -15.990578
   0.64819    -15.968696
   0.66573    -15.946124
   0.68327    -15.922994
   0.70081    -15.899512
   0.71835    -15.876034
   0.73589    -15.853234
   0.75343    -15.832453
   0.77097    -15.816520
   0.78851    -15.810127
 
# Band-Index   10
   0.78851    -15.750617
   0.77097    -15.730908
   0.75343    -15.724814
   0.73589    -15.740763
   0.71835    -15.763072
   0.70081    -15.787816
   0.68327    -15.813670
   0.66573    -15.840034
   0.64819    -15.866606
   0.63065    -15.893241
   0.61311    -15.919886
   0.59557    -15.946505
   0.57803    -15.973113
   0.56049    -15.999713
   0.54295    -16.026306
   0.52541    -16.052812
   0.50787    -16.079009
   0.49033    -16.104189
   0.47279    -16.125197
   0.45525    -16.132418
   0.45525    -16.132418
   0.44648    -16.130078
   0.43771    -16.118789
   0.42894    -16.105000
   0.42017    -16.095135
   0.41140    -16.086618
   0.40263    -16.079022
   0.39386    -16.072300
   0.38509    -16.066440
   0.37632    -16.061399
   0.36755    -16.057118
   0.35878    -16.053538
   0.35001    -16.050579
   0.34124    -16.048174
   0.33247    -16.046256
   0.32370    -16.044770
   0.31493    -16.043665
   0.30616    -16.042905
   0.29739    -16.042459
   0.28862    -16.042313
   0.28862    -16.042313
   0.27343    -16.033588
   0.25824    -16.010845
   0.24305    -15.979844
   0.22785    -15.944446
   0.21266    -15.906823
   0.19747    -15.868347
   0.18228    -15.830126
   0.16709    -15.793473
   0.15190    -15.760308
   0.13671    -15.733270
   0.12152    -15.714420
   0.10633    -15.703080
   0.09114    -15.696685
   0.07595    -15.699823
   0.06076    -15.703596
   0.04557    -15.708072
   0.03038    -15.716019
   0.01519    -15.733955
   0.00000    -15.750617
 
# Band-Index   11
   0.00000    -15.685520
   0.01519    -15.686014
   0.03038    -15.687238
   0.04557    -15.688791
   0.06076    -15.690595
   0.07595    -15.692979
   0.09114    -15.695988
   0.10633    -15.691858
   0.12152    -15.687358
   0.13671    -15.682464
   0.15190    -15.677207
   0.16709    -15.671659
   0.18228    -15.665908
   0.19747    -15.660071
   0.21266    -15.654330
   0.22785    -15.648924
   0.24305    -15.644146
   0.25824    -15.641115
   0.27343    -15.640906
   0.28862    -15.640830
   0.28862    -15.640830
   0.29739    -15.667960
   0.30616    -15.696969
   0.31493    -15.726016
   0.32370    -15.755075
   0.33247    -15.784109
   0.34124    -15.813115
   0.35001    -15.842066
   0.35878    -15.870940
   0.36755    -15.899717
   0.37632    -15.928384
   0.38509    -15.956891
   0.39386    -15.985193
   0.40263    -16.013208
   0.41140    -16.040757
   0.42017    -16.067440
   0.42894    -16.091883
   0.43771    -16.108789
   0.44648    -16.117921
   0.45525    -16.121762
   0.45525    -16.121762
   0.47279    -16.107731
   0.49033    -16.077356
   0.50787    -16.038681
   0.52541    -15.996238
   0.54295    -15.951968
   0.56049    -15.906692
   0.57803    -15.860815
   0.59557    -15.814599
   0.61311    -15.768308
   0.63065    -15.722234
   0.64819    -15.676915
   0.66573    -15.633735
   0.68327    -15.598683
   0.70081    -15.593596
   0.71835    -15.613901
   0.73589    -15.638551
   0.75343    -15.663130
   0.77097    -15.684285
   0.78851    -15.685520
 
# Band-Index   12
   0.78851    -15.685481
   0.77097    -15.678620
   0.75343    -15.660393
   0.73589    -15.623757
   0.71835    -15.585050
   0.70081    -15.549779
   0.68327    -15.526156
   0.66573    -15.509207
   0.64819    -15.502322
   0.63065    -15.511958
   0.61311    -15.529957
   0.59557    -15.551466
   0.57803    -15.573988
   0.56049    -15.596094
   0.54295    -15.616825
   0.52541    -15.635394
   0.50787    -15.651074
   0.49033    -15.663159
   0.47279    -15.670918
   0.45525    -15.673652
   0.45525    -15.673652
   0.44648    -15.672932
   0.43771    -15.670748
   0.42894    -15.667060
   0.42017    -15.661853
   0.41140    -15.655141
   0.40263    -15.646974
   0.39386    -15.637421
   0.38509    -15.626597
   0.37632    -15.614638
   0.36755    -15.601711
   0.35878    -15.588033
   0.35001    -15.573863
   0.34124    -15.559574
   0.33247    -15.545893
   0.32370    -15.536797
   0.31493    -15.553815
   0.30616    -15.581416
   0.29739    -15.609985
   0.28862    -15.637010
   0.28862    -15.637010
   0.27343    -15.637869
   0.25824    -15.640340
   0.24305    -15.641390
   0.22785    -15.641610
   0.21266    -15.641579
   0.19747    -15.640980
   0.18228    -15.639276
   0.16709    -15.635523
   0.15190    -15.628079
   0.13671    -15.614507
   0.12152    -15.592922
   0.10633    -15.564173
   0.09114    -15.531083
   0.07595    -15.534445
   0.06076    -15.577538
   0.04557    -15.619456
   0.03038    -15.656429
   0.01519    -15.679394
   0.00000    -15.685481
 
# Band-Index   13
   0.00000    -15.497475
   0.01519    -15.492463
   0.03038    -15.478676
   0.04557    -15.460111
   0.06076    -15.463549
   0.07595    -15.496357
   0.09114    -15.492071
   0.10633    -15.453152
   0.12152    -15.424888
   0.13671    -15.416668
   0.15190    -15.422339
   0.16709    -15.432721
   0.18228    -15.444345
   0.19747    -15.455951
   0.21266    -15.466903
   0.22785    -15.476744
   0.24305    -15.485062
   0.25824    -15.491435
   0.27343    -15.495465
   0.28862    -15.496847
   0.28862    -15.496847
   0.29739    -15.499230
   0.30616    -15.505832
   0.31493    -15.514860
   0.32370    -15.515602
   0.33247    -15.491607
   0.34124    -15.463726
   0.35001    -15.435461
   0.35878    -15.407195
   0.36755    -15.379040
   0.37632    -15.351056
   0.38509    -15.323289
   0.39386    -15.295805
   0.40263    -15.268669
   0.41140    -15.242000
   0.42017    -15.215989
   0.42894    -15.190992
   0.43771    -15.167903
   0.44648    -15.149283
   0.45525    -15.141685
   0.45525    -15.141685
   0.47279    -15.158650
   0.49033    -15.186408
   0.50787    -15.216567
   0.52541    -15.247878
   0.54295    -15.279905
   0.56049    -15.312384
   0.57803    -15.345090
   0.59557    -15.377819
   0.61311    -15.410330
   0.63065    -15.442245
   0.64819    -15.472662
   0.66573    -15.497935
   0.68327    -15.519938
   0.70081    -15.515877
   0.71835    -15.481626
   0.73589    -15.454135
   0.75343    -15.473017
   0.77097    -15.490836
   0.78851    -15.497475
 
# Band-Index   14
   0.78851    -15.351546
   0.77097    -15.367197
   0.75343    -15.399348
   0.73589    -15.429778
   0.71835    -15.410323
   0.70081    -15.380130
